File: CVA-0p1M-KBr.mpt
EC-Lab ASCII FILE
Nb header lines : 71

Cyclic Voltammetry Advanced

Run on channel : 2 (SN 53091)
User :
CE vs. WE compliance from -10 V to 10 V
Electrode connection : standard
Potential control : Ewe
Ewe ctrl range : min = -1.50 V, max = 1.50 V
Safety Limits :
	Do not start on E overload
Acquisition started on : 06/03/2024 19:37:21.883
Technique started on : 06/03/2024 19:37:26.934
Loaded Setting File :  C:\EC Lab Data(Uran)-- Hard drive\240603 KBr Titration (Cat) Replication\03b-CVA-30mM-KBr-pH4p4-Rep1.mps
Saved on :
	File : 04b-CVA-0p1M-KBr-pH5p0-Rep1_02_CVA_C02.mpr
	Directory : C:\EC Lab Data(Uran)-- Hard drive\240603 KBr Titration (Cat) Replication\
	Host : 10.16.90.189
Device : VSP (SN 1989)
Address : USB
EC-Lab for windows v11.52 (software)
Internet server v11.52 (firmware)
Command interpretor v11.50 (firmware)
Electrode material :
Initial state :
Electrolyte :
Comments :
Electrode surface area : 0.001 cm²
Characteristic mass : 0.001 g
Equivalent Weight : 0.000 g/eq.
Density : 0.000 g/cm3
Volume (V) : 0.001 cm³
Record Ece
Text export
   Mode : Standard
   Time format : Elapsed
Cycle Definition : Charge/Discharge alternance
Ei (V)              0.000
vs.                 Eoc
ti (h:m:s)          0:00:5.0000
dti (s)             0.0000
dE/dt               1.000
dE/dt unit          V/s
E1 (V)              -1.200
vs.                 Ref
t1 (h:m:s)          0:00:0.0000
dt1 (s)             0.0500
Step percent        50
N                   10
E range min (V)     -1.500
E range max (V)     1.500
I Range             1 mA
I Range min         Unset
I Range max         Unset
I Range init        Unset
Bandwidth           5
E2 (V)              0.600
vs.                 Ref
t2 (h:m:s)          0:00:0.0000
dt2 (s)             0.0500
nc cycles           2
nr                  1
Reverse Scan        1
Ef (V)              0.000
vs.                 Eoc
tf (h:m:s)          0:00:0.0000
dtf (s)             0.1000

mode	ox/red	error	control changes	Ns changes	counter inc.	time/s	control/V	Ewe/V	<I>/mA	cycle number	(Q-Qo)/C	I Range	Ns	step time/s	<Ece>/V	Rcmp/Ohm	P/W	Ewe-Ece/V
2	1	0	1	0	0	5.051	0.428045	0.427763	3.37152e-05	1	0.0000000E+000	12	0	5.051	0.333357	64.175	1.44221e-08	0.0944056
2	0	0	1	0	0	5.1741	0.304995	0.30471	-0.00210278	1	-1.60448e-07	12	0	5.1741	0.334091	64.175	-6.40737e-07	-0.0293809
2	0	0	1	0	0	5.2981	0.181004	0.180651	-0.0231147	1	-1.31558e-06	12	0	5.2981	0.33943	64.175	-4.17568e-06	-0.158779
2	0	0	1	0	0	5.4221	0.0570006	0.0567346	-0.0261985	1	-4.80779e-06	12	0	5.4221	0.341599	64.175	-1.48636e-06	-0.284865
2	0	0	1	0	0	5.5461	-0.067002	-0.0673064	-0.0239059	1	-7.82435e-06	12	0	5.5461	0.341502	64.175	1.60902e-06	-0.408809
2	0	0	1	0	0	5.6701	-0.191009	-0.191322	-0.0266683	1	-1.09471e-05	12	0	5.6701	0.342642	64.175	5.10225e-06	-0.533964
2	0	0	1	0	0	5.7941	-0.314994	-0.31532	-0.027893	1	-1.43557e-05	12	0	5.7941	0.343482	64.175	8.79524e-06	-0.658802
2	0	0	1	0	0	5.9181	-0.438998	-0.439263	-0.0277718	1	-1.78007e-05	12	0	5.9181	0.343854	64.175	1.21991e-05	-0.783116
2	0	0	1	0	0	6.0421	-0.562999	-0.563284	-0.0291844	1	-2.13048e-05	12	0	6.0421	0.344562	64.175	1.64391e-05	-0.907846
2	0	0	1	0	0	6.1661	-0.687004	-0.687313	-0.0327557	1	-2.51321e-05	12	0	6.1661	0.345939	64.175	2.25134e-05	-1.03325
2	0	0	1	0	0	6.2901	-0.81101	-0.811278	-0.0372446	1	-2.9456e-05	12	0	6.2901	0.347599	64.175	3.02157e-05	-1.15888
2	0	0	1	0	0	6.4141	-0.935006	-0.935277	-0.0568856	1	-3.47912e-05	12	0	6.4141	0.353037	64.175	5.32037e-05	-1.28831
2	0	0	1	0	0	6.5381	-1.05901	-1.05933	-0.205682	1	-5.05311e-05	12	0	6.5381	0.39389	64.175	0.000217886	-1.45322
2	0	0	1	0	0	6.6621	-1.183	-1.1833	-0.237154	1	-7.8801e-05	12	0	6.6621	0.410168	64.175	0.000280626	-1.59347
2	0	0	1	0	0	6.7809	-1.09866	-1.09895	-0.204351	1	-0.000104823	12	0	6.7809	0.406835	64.175	0.000224571	-1.50579
2	0	0	1	0	0	6.9049	-0.974668	-0.975021	-0.0442846	1	-0.000122474	12	0	6.9049	0.368401	64.175	4.31784e-05	-1.34342
2	0	0	1	0	0	7.0289	-0.850665	-0.851012	-0.00100448	1	-0.000123765	12	0	7.0289	0.351012	64.175	8.54823e-07	-1.20202
2	0	0	1	0	0	7.1529	-0.726672	-0.726968	0.000527268	1	-0.000123803	12	0	0.028	0.347593	64.175	-3.83307e-07	-1.07456
2	1	0	1	0	0	7.2769	-0.602672	-0.602964	0.00281985	1	-0.000123599	12	0	0.152	0.345265	64.175	-1.70027e-06	-0.948229
2	1	0	1	0	0	7.4009	-0.478669	-0.479018	0.00474386	1	-0.000123125	12	0	0.276	0.343515	64.175	-2.27239e-06	-0.822533
2	1	0	1	0	0	7.5249	-0.354667	-0.354981	0.00620914	1	-0.000122447	12	0	0.4	0.342141	64.175	-2.20413e-06	-0.697123
2	1	0	1	0	0	7.6489	-0.230657	-0.230982	0.00749092	1	-0.000121596	12	0	0.524	0.3411	64.175	-1.73027e-06	-0.572082
2	1	0	1	0	0	7.7729	-0.106673	-0.107021	0.00853566	1	-0.0001206	12	0	0.648	0.340237	64.175	-9.13492e-07	-0.447257
2	1	0	1	0	0	7.8969	0.017324	0.016989	0.0102995	1	-0.000119454	12	0	0.772	0.339248	64.175	1.74978e-07	-0.322259
2	1	0	1	0	0	8.0209	0.141334	0.141042	0.017733	1	-0.000117824	12	0	0.896	0.336799	64.175	2.50111e-06	-0.195756
2	1	0	1	0	0	8.1449	0.265333	0.265009	0.0305997	1	-0.000114756	12	0	1.02	0.332537	64.175	8.10919e-06	-0.0675283
2	1	0	1	0	0	8.2689	0.389328	0.389019	0.0309603	1	-0.000110829	12	0	1.144	0.331333	64.175	1.20441e-05	0.0576858
2	1	0	1	0	0	8.3929	0.513332	0.513	0.0268851	1	-0.000107251	12	0	1.268	0.331624	64.175	1.37921e-05	0.181375
2	1	0	1	0	1	8.5113	0.568586	0.568331	0.015068	1	-0.000104425	12	0	1.3864	0.334124	64.175	8.56361e-06	0.234208
2	1	0	1	0	1	8.6353	0.444594	0.444304	0.00820438	1	-0.000103062	12	0	1.5104	0.336154	64.175	3.64524e-06	0.10815
2	1	0	1	0	1	8.7569	0.322989	0.322688	0.00449443	2	-0.000102297	12	0	1.632	0.337329	64.175	1.4503e-06	-0.0146411
2	1	0	1	0	1	8.8809	0.198996	0.198727	-0.000329909	2	-0.000101993	12	0	0.002	0.338669	64.175	-6.55617e-08	-0.139942
2	0	0	1	0	1	9.0049	0.074995	0.074666	-0.00724902	2	-0.000102486	12	0	0.126	0.34083	64.175	-5.41255e-07	-0.266164
2	0	0	1	0	1	9.1289	-0.04901	-0.0493214	-0.0126567	2	-0.000103728	12	0	0.25	0.342695	64.175	6.24247e-07	-0.392016
2	0	0	1	0	1	9.2529	-0.172998	-0.173286	-0.0154835	2	-0.000105501	12	0	0.374	0.343828	64.175	2.68307e-06	-0.517114
2	0	0	1	0	1	9.3769	-0.297007	-0.297334	-0.0165959	2	-0.00010749	12	0	0.498	0.344547	64.175	4.93454e-06	-0.641881
2	0	0	1	0	1	9.5009	-0.421001	-0.421296	-0.0183601	2	-0.00010964	12	0	0.622	0.345311	64.175	7.73505e-06	-0.766606
2	0	0	1	0	1	9.6249	-0.545006	-0.545342	-0.0224569	2	-0.000112136	12	0	0.746	0.3467	64.175	1.22467e-05	-0.892042
2	0	0	1	0	1	9.7489	-0.669003	-0.669316	-0.0291402	2	-0.000115321	12	0	0.87	0.348897	64.175	1.9504e-05	-1.01821
2	0	0	1	0	1	9.8729	-0.793001	-0.793294	-0.0352079	2	-0.000119321	12	0	0.994	0.35117	64.175	2.79303e-05	-1.14446
2	0	0	1	0	1	9.9969	-0.917003	-0.917365	-0.0480735	2	-0.000124214	12	0	1.118	0.355036	64.175	4.4101e-05	-1.2724
2	0	0	1	0	1	10.1209	-1.04099	-1.0413	-0.191231	2	-0.000137404	12	0	1.242	0.393357	64.175	0.00019913	-1.43466
2	0	0	1	0	1	10.2449	-1.165	-1.16533	-0.233768	2	-0.000164979	12	0	1.366	0.412816	64.175	0.000272417	-1.57815
2	0	0	1	0	1	10.3637	-1.11666	-1.11695	-0.206788	2	-0.00019125	12	0	1.4848	0.411254	64.175	0.000230971	-1.5282
2	0	0	1	0	1	10.4877	-0.992668	-0.993015	-0.0724358	2	-0.000211386	12	0	1.6088	0.380447	64.175	7.19299e-05	-1.37346
2	0	0	1	0	1	10.6117	-0.868666	-0.86899	-0.000202101	2	-0.000213591	12	0	1.7328	0.355991	64.175	1.75624e-07	-1.22498
2	1	0	1	0	1	10.7357	-0.744673	-0.744964	0.00196568	2	-0.000213466	12	0	0.116	0.352014	64.175	-1.46436e-06	-1.09698
2	1	0	1	0	1	10.8597	-0.620671	-0.620974	0.00406787	2	-0.000213097	12	0	0.24	0.349526	64.175	-2.52604e-06	-0.970499
2	1	0	1	0	1	10.9837	-0.496669	-0.496992	0.0057969	2	-0.000212478	12	0	0.364	0.347759	64.175	-2.88101e-06	-0.844751
2	1	0	1	0	1	11.1077	-0.372674	-0.372988	0.00729135	2	-0.000211666	12	0	0.488	0.346394	64.175	-2.71959e-06	-0.719382
2	1	0	1	0	1	11.2317	-0.248664	-0.248991	0.00886941	2	-0.000210665	12	0	0.612	0.345163	64.175	-2.20841e-06	-0.594154
2	1	0	1	0	1	11.3557	-0.124671	-0.124979	0.00999121	2	-0.000209492	12	0	0.736	0.344221	64.175	-1.24869e-06	-0.4692
2	1	0	1	0	1	11.4797	-0.000671298	-0.00103753	0.0117172	2	-0.000208168	12	0	0.86	0.343197	64.175	-1.2157e-08	-0.344235
2	1	0	1	0	1	11.6037	0.123333	0.123044	0.0179201	2	-0.000206417	12	0	0.984	0.341081	64.175	2.20496e-06	-0.218037
2	1	0	1	0	1	11.7277	0.247328	0.247025	0.029372	2	-0.000203452	12	0	1.108	0.337223	64.175	7.25563e-06	-0.0901978
2	1	0	1	0	1	11.8517	0.371332	0.371033	0.0331023	2	-0.000199491	12	0	1.232	0.335164	64.175	1.2282e-05	0.0358692
2	1	0	1	0	1	11.9757	0.495333	0.495047	0.0307005	2	-0.000195505	12	0	1.356	0.334908	64.175	1.51982e-05	0.160139
2	1	0	1	0	0	12.0941	0.586597	0.58632	0.0208068	2	-0.000192075	12	0	1.4744	0.336642	64.175	1.21994e-05	0.249678
2	1	0	1	0	0	12.2181	0.462598	0.462333	0.00997813	2	-0.000190344	12	0	1.5984	0.339681	64.175	4.61322e-06	0.122652
2	1	0	1	0	0	12.3397	0.340995	0.34077	0.00533835	3	-0.000189428	12	0	1.72	0.341115	64.175	1.81915e-06	-0.00034523
2	1	0	1	0	0	12.4637	0.216988	0.216692	0.00130154	3	-0.000189007	12	0	1.844	0.342386	64.175	2.82033e-07	-0.125694
2	0	0	1	0	0	12.5877	0.0930021	0.0927098	-0.00276338	3	-0.000189119	12	0	0.088	0.343691	64.175	-2.56192e-07	-0.250981
2	0	0	1	0	0	12.7117	-0.0310078	-0.0313529	-0.00548199	3	-0.000189626	12	0	0.212	0.34457	64.175	1.71876e-07	-0.375923
2	0	0	1	0	0	12.8357	-0.154997	-0.155336	-0.00917568	3	-0.000190519	12	0	0.336	0.345851	64.175	1.42531e-06	-0.501187
2	0	0	1	0	0	12.9597	-0.279006	-0.279342	-0.0142498	3	-0.000191964	12	0	0.46	0.347486	64.175	3.98057e-06	-0.626828
2	0	0	1	0	0	13.0837	-0.403006	-0.403293	-0.0164264	3	-0.000193912	12	0	0.584	0.348506	64.175	6.62466e-06	-0.751799
2	0	0	1	0	0	13.2077	-0.527008	-0.527293	-0.0195033	3	-0.000196081	12	0	0.708	0.349603	64.175	1.0284e-05	-0.876895
2	0	0	1	0	0	13.3317	-0.651008	-0.651289	-0.0272291	3	-0.000198947	12	0	0.832	0.352057	64.175	1.7734e-05	-1.00335
2	0	0	1	0	0	13.4557	-0.775006	-0.775278	-0.0351901	3	-0.000202827	12	0	0.956	0.354787	64.175	2.72821e-05	-1.13007
2	0	0	1	0	0	13.5797	-0.899003	-0.899332	-0.0458593	3	-0.000207719	12	0	1.08	0.358328	64.175	4.12427e-05	-1.25766
2	0	0	1	0	0	13.7037	-1.023	-1.02333	-0.170729	3	-0.000218819	12	0	1.204	0.391157	64.175	0.000174713	-1.41449
2	0	0	1	0	0	13.8277	-1.147	-1.1473	-0.23239	3	-0.000245605	12	0	1.328	0.415457	64.175	0.000266623	-1.56276
2	0	0	1	0	0	13.9465	-1.13467	-1.135	-0.208285	3	-0.000272178	12	0	1.4468	0.415115	64.175	0.000236403	-1.55011
2	0	0	1	0	0	14.0705	-1.01067	-1.01098	-0.106226	3	-0.000294268	12	0	1.5708	0.39293	64.175	0.000107393	-1.40391
2	0	0	1	0	0	14.1945	-0.88667	-0.887034	-0.0008597	3	-0.000298036	12	0	1.6948	0.360911	64.175	7.62584e-07	-1.24795
2	1	0	1	0	0	14.3185	-0.762667	-0.76296	0.00219548	3	-0.000297901	12	0	0.106	0.35623	64.175	-1.67507e-06	-1.11919
2	1	0	1	0	0	14.4425	-0.638658	-0.638995	0.00433763	3	-0.0002975	12	0	0.23	0.35364	64.175	-2.77172e-06	-0.992636
2	1	0	1	0	0	14.5665	-0.514668	-0.514997	0.00609724	3	-0.000296849	12	0	0.354	0.351798	64.175	-3.14006e-06	-0.866795
2	1	0	1	0	0	14.6905	-0.39067	-0.390955	0.0076258	3	-0.000296002	12	0	0.478	0.350304	64.175	-2.98135e-06	-0.741259
2	1	0	1	0	0	14.8145	-0.266672	-0.266971	0.00940556	3	-0.000294949	12	0	0.602	0.349057	64.175	-2.51101e-06	-0.616028
2	1	0	1	0	0	14.9385	-0.142668	-0.142993	0.0105958	3	-0.000293703	12	0	0.726	0.347979	64.175	-1.51512e-06	-0.490972
2	1	0	1	0	0	15.0625	-0.0186664	-0.0190187	0.0121134	3	-0.000292312	12	0	0.85	0.347049	64.175	-2.3038e-07	-0.366068
2	1	0	1	0	0	15.1865	0.105332	0.105062	0.0171905	3	-0.000290562	12	0	0.974	0.345113	64.175	1.80606e-06	-0.240051
2	1	0	1	0	0	15.3105	0.229342	0.229037	0.0281606	3	-0.000287756	12	0	1.098	0.341463	64.175	6.4498e-06	-0.112426
2	1	0	1	0	0	15.4345	0.353328	0.353061	0.0338758	3	-0.000283834	12	0	1.222	0.338945	64.175	1.19603e-05	0.0141162
2	1	0	1	0	0	15.5585	0.47734	0.477057	0.033345	3	-0.000279632	12	0	1.346	0.338122	64.175	1.59074e-05	0.138935
2	1	0	1	0	0	15.681	0.599864	0.599511	0.0325849	3	-0.000275577	12	0	1.4685	0.337497	64.175	1.9535e-05	0.262013
2	1	0	1	0	1	15.8009	0.480603	0.480302	0.0117091	3	-0.00027349	12	0	1.5884	0.342866	64.175	5.62391e-06	0.137436
2	1	0	0	0	1	15.8534	0.428054	0.427794	0.00991043	3	-0.000272947	12	0	1.6409	0.342773	64.175	4.23962e-06	0.0850208