File: CVA-0p1M-KBr-nonCat-CoIII-II.mpt
EC-Lab ASCII FILE
Nb header lines : 71

Cyclic Voltammetry Advanced

Run on channel : 2 (SN 53091)
User :
CE vs. WE compliance from -10 V to 10 V
Electrode connection : standard
Potential control : Ewe
Ewe ctrl range : min = -2.50 V, max = 2.50 V
Safety Limits :
	Do not start on E overload
Acquisition started on : 02/12/2024 14:15:34.985
Technique started on : 02/12/2024 14:15:42.272
Loaded Setting File :  NONE
Saved on :
	File : 07a_CVA_50mVps_3x_3mmGC_Ar-purged_02_CVA_C02.mpr
	Directory : C:\Users\anita\Documents\EC-Lab\Data\DMM\2024\CoDIM ligand kinetics exploration\240212 2mM CoDIMBr2 0.1 M KBr, DCV and ACV\
	Host : 10.16.98.111
Device : VSP (SN 1989)
Address : USB
EC-Lab for windows v11.43 (software)
Internet server v11.40 (firmware)
Command interpretor v11.40 (firmware)
Electrode material :
Initial state :
Electrolyte :
Comments :
Electrode surface area : 0.001 cm²
Characteristic mass : 0.001 g
Equivalent Weight : 0.000 g/eq.
Density : 0.000 g/cm3
Volume (V) : 0.001 cm³
Record Ece
Text export
   Mode : Standard
   Time format : Elapsed
Cycle Definition : Charge/Discharge alternance
Ei (V)              0.000
vs.                 Eoc
ti (h:m:s)          0:00:5.0000
dti (s)             0.0000
dE/dt               50.000
dE/dt unit          mV/s
E1 (V)              -0.400
vs.                 Ref
t1 (h:m:s)          0:00:0.0000
dt1 (s)             0.0500
Step percent        50
N                   10
E range min (V)     -2.500
E range max (V)     2.500
I Range             Auto
I Range min         Unset
I Range max         Unset
I Range init        Unset
Bandwidth           5
E2 (V)              0.600
vs.                 Ref
t2 (h:m:s)          0:00:0.0000
dt2 (s)             0.0500
nc cycles           2
nr                  1
Reverse Scan        1
Ef (V)              0.000
vs.                 Eoc
tf (h:m:s)          0:00:0.0000
dtf (s)             0.1000

mode	ox/red	error	control changes	Ns changes	counter inc.	time/s	control/V	Ewe/V	<I>/mA	cycle number	(Q-Qo)/C	I Range	<Ece>/V	Rcmp/Ohm	P/W	Ewe-Ece/V
2	1	0	0	0	0	7.2874	0.452272	0.452028	1.29178e-06	1	0.0000000E+000	14	0.44292	117.476	5.83921e-10	0.00910783
2	0	0	1	0	0	8.5588	0.388702	0.388423	-0.00012588	1	-1.1322e-07	14	0.442965	117.476	-4.88948e-08	-0.0545421
2	0	0	0	0	0	9.839	0.324692	0.324405	-0.00038888	1	-3.75039e-07	14	0.443113	117.476	-1.26154e-07	-0.118707
2	0	0	0	0	0	11.119	0.260692	0.260418	-0.00278611	1	-1.90451e-06	14	0.444543	117.476	-7.25552e-07	-0.184124
2	0	0	0	0	0	12.429	0.195192	0.194871	-0.0123821	1	-1.13521e-05	13	0.450888	117.476	-2.41291e-06	-0.256017
2	0	0	1	0	0	13.7113	0.131079	0.130827	-0.0134687	1	-2.94294e-05	13	0.453879	117.476	-1.76208e-06	-0.323052
2	0	0	1	0	0	14.9988	0.0667025	0.0664067	-0.0104618	1	-4.46937e-05	13	0.453454	117.476	-6.94732e-07	-0.387047
2	0	0	0	0	0	16.283	0.00249249	0.0021495	-0.00892544	1	-5.71031e-05	13	0.45331	117.476	-1.91852e-08	-0.451161
2	0	0	1	0	0	17.5659	-0.0616514	-0.0619962	-0.00789349	1	-6.79133e-05	13	0.453326	117.476	4.89366e-07	-0.515322
2	0	0	0	0	0	18.8482	-0.125768	-0.126086	-0.00712238	1	-7.75769e-05	13	0.453382	117.476	8.98033e-07	-0.579468
2	0	0	1	0	0	20.1301	-0.189861	-0.190191	-0.00652245	1	-8.63632e-05	13	0.453469	117.476	1.24051e-06	-0.64366
2	0	0	0	0	0	21.4118	-0.253948	-0.25425	-0.00606326	1	-9.44745e-05	13	0.453595	117.476	1.54159e-06	-0.707846
2	0	0	0	0	0	22.693	-0.318008	-0.318293	-0.0057221	1	-0.000102071	13	0.453776	117.476	1.8213e-06	-0.772069
2	0	0	1	0	0	23.974	-0.382058	-0.382331	-0.00547152	1	-0.000109292	13	0.453999	117.476	2.09193e-06	-0.83633
2	0	0	1	0	0	25.224	-0.355458	-0.355735	-0.00487343	1	-0.000115738	13	0.453946	117.476	1.73365e-06	-0.80968
2	0	0	1	0	0	26.534	-0.289958	-0.290249	-0.00444719	1	-0.000121805	14	0.453925	117.476	1.29079e-06	-0.744174
2	0	0	1	0	0	27.814	-0.225958	-0.22621	-0.00415787	1	-0.000127315	14	0.45399	117.476	9.40555e-07	-0.6802
2	0	0	1	0	0	29.094	-0.161958	-0.162232	-0.00389542	1	-0.000132475	14	0.454042	117.476	6.31963e-07	-0.616274
2	0	0	1	0	0	30.374	-0.0979577	-0.0982666	-0.00362926	1	-0.000137299	14	0.454094	117.476	3.56636e-07	-0.552361
2	0	0	0	0	0	31.6542	-0.0339477	-0.0342533	-0.00334536	1	-0.000141774	14	0.454119	117.476	1.14589e-07	-0.488372
2	0	0	0	0	0	32.9342	0.0300523	0.0298003	-0.0030098	1	-0.000145858	14	0.454057	117.476	-8.96927e-08	-0.424257
2	0	0	0	0	0	34.2142	0.0940523	0.0938665	-0.00231533	1	-0.000149361	14	0.453785	117.476	-2.17332e-07	-0.359918
2	1	0	0	0	0	35.4942	0.158052	0.157819	0.00121151	1	-0.000150675	14	0.451783	117.476	1.912e-07	-0.293964
2	1	0	1	0	0	36.7744	0.222062	0.221828	0.0100252	1	-0.000143408	14	0.445767	117.476	2.22388e-06	-0.223939
2	1	0	1	0	0	38.1286	0.289768	0.289548	0.00976434	1	-0.000128822	13	0.443779	117.476	2.82725e-06	-0.154231
2	1	0	1	0	0	39.4822	0.357443	0.357214	0.00663015	1	-0.000117842	13	0.444593	117.476	2.36838e-06	-0.0873792
2	1	0	1	0	0	40.8587	0.426267	0.426022	0.00489222	1	-0.000109982	13	0.445113	117.476	2.08419e-06	-0.0190912
2	1	0	1	0	0	42.2861	0.497638	0.497389	0.00389291	1	-0.000103744	14	0.445374	117.476	1.93629e-06	0.0520146
2	1	0	1	0	0	43.6021	0.563438	0.563239	0.00328845	1	-9.90541e-05	14	0.445485	117.476	1.85218e-06	0.117754
2	1	0	1	0	1	44.8848	0.572412	0.572169	0.00253907	1	-9.52586e-05	14	0.445737	117.476	1.45278e-06	0.126432
2	1	0	1	0	1	46.1648	0.508412	0.508137	0.00212223	1	-9.2287e-05	14	0.44585	117.476	1.07838e-06	0.0622868
2	1	0	1	0	1	47.4208	0.445612	0.445317	0.00181184	2	-8.98121e-05	14	0.445916	117.476	8.06843e-07	-0.000599414
2	1	0	1	0	1	48.7009	0.381609	0.381301	0.00151387	2	-8.76726e-05	14	0.445998	117.476	5.7724e-07	-0.0646978
2	1	0	0	0	1	49.981	0.317602	0.317292	0.000978138	2	-8.59958e-05	14	0.446244	117.476	3.10356e-07	-0.128952
2	0	0	0	0	1	51.261	0.253602	0.253367	-0.00214195	2	-8.61489e-05	14	0.447997	117.476	-5.427e-07	-0.194629
2	0	0	0	0	1	52.571	0.188102	0.187799	-0.0120211	2	-9.53045e-05	13	0.454644	117.476	-2.25755e-06	-0.266845
2	0	0	1	0	1	53.8537	0.123969	0.123708	-0.0116797	2	-0.000111702	13	0.456687	117.476	-1.44488e-06	-0.332978
2	0	0	1	0	1	55.1407	0.0596186	0.059335	-0.00893456	2	-0.000124814	13	0.456179	117.476	-5.30132e-07	-0.396844
2	0	0	1	0	1	56.4244	-0.00456751	-0.00491419	-0.00758079	2	-0.00013539	13	0.456029	117.476	3.72534e-08	-0.460943
2	0	0	0	0	1	57.707	-0.0686975	-0.0689949	-0.00668239	2	-0.000144567	13	0.456007	117.476	4.61051e-07	-0.525002
2	0	0	0	0	1	58.989	-0.132798	-0.133126	-0.00600315	2	-0.000152738	13	0.456042	117.476	7.99177e-07	-0.589168
2	0	0	1	0	1	60.2708	-0.196888	-0.197193	-0.00548415	2	-0.000160144	13	0.456115	117.476	1.08144e-06	-0.653308
2	0	0	0	0	1	61.5522	-0.260958	-0.261207	-0.00509585	2	-0.00016697	13	0.456222	117.476	1.33107e-06	-0.717429
2	0	0	0	0	1	62.8334	-0.325018	-0.32527	-0.0048182	2	-0.000173369	13	0.456349	117.476	1.56722e-06	-0.78162
2	0	0	1	0	1	64.1143	-0.389062	-0.38934	-0.00462685	2	-0.000179471	13	0.456537	117.476	1.80142e-06	-0.845877
2	0	0	1	0	1	65.394	-0.346968	-0.347197	-0.00401322	2	-0.000184953	14	0.456433	117.476	1.39338e-06	-0.80363
2	0	0	1	0	1	66.674	-0.282968	-0.283208	-0.0037156	2	-0.000189897	14	0.456453	117.476	1.05228e-06	-0.73966
2	0	0	1	0	1	67.954	-0.218968	-0.21925	-0.00347822	2	-0.000194505	14	0.456512	117.476	7.62602e-07	-0.675763
2	0	0	1	0	1	69.234	-0.154968	-0.155292	-0.00326232	2	-0.000198826	14	0.456543	117.476	5.06613e-07	-0.611835
2	0	0	1	0	1	70.514	-0.0909677	-0.0912875	-0.00304048	2	-0.000202868	14	0.45657	117.476	2.77558e-07	-0.547858
2	0	0	1	0	1	71.794	-0.0269677	-0.0272149	-0.00279357	2	-0.000206613	14	0.456559	117.476	7.60267e-08	-0.483774
2	0	0	1	0	1	73.074	0.0370323	0.0368429	-0.00248762	2	-0.000210012	14	0.456489	117.476	-9.16512e-08	-0.419646
2	0	0	1	0	1	74.354	0.101032	0.100813	-0.00172624	2	-0.000212829	14	0.456146	117.476	-1.74028e-07	-0.355333
2	1	0	1	0	1	75.634	0.165032	0.164831	0.00245746	2	-0.000213076	14	0.45368	117.476	4.05065e-07	-0.288849
2	1	0	1	0	1	76.9451	0.230586	0.230349	0.0111431	2	-0.000203684	13	0.44743	117.476	2.56681e-06	-0.217081
2	1	0	1	0	1	78.2741	0.297032	0.296807	0.00990334	2	-0.000188779	13	0.446087	117.476	2.93938e-06	-0.14928
2	1	0	1	0	1	79.6287	0.364762	0.364521	0.00688177	2	-0.000177543	13	0.446891	117.476	2.50855e-06	-0.0823704
2	1	0	1	0	1	81.0098	0.433813	0.433535	0.00522447	2	-0.000169239	13	0.44736	117.476	2.26499e-06	-0.0138248
2	1	0	1	0	1	82.4261	0.504628	0.504445	0.00425952	2	-0.000162549	14	0.447576	117.476	2.14869e-06	0.0568685
2	1	0	1	0	1	83.7364	0.570142	0.569981	0.00366785	2	-0.000157395	14	0.447669	117.476	2.09061e-06	0.122312
2	1	0	0	0	0	84.9856	0.567382	0.56711	0.00289125	2	-0.000153274	14	0.447897	117.476	1.63966e-06	0.119214
2	1	0	0	0	0	86.2656	0.503382	0.503117	0.00246475	2	-0.000149856	14	0.448014	117.476	1.24006e-06	0.0551028
2	1	0	0	0	0	87.5216	0.440582	0.440312	0.00213319	3	-0.000146964	14	0.448071	117.476	9.39269e-07	-0.00775874
2	1	0	0	0	0	88.8016	0.376582	0.376314	0.00181346	3	-0.000144428	14	0.44815	117.476	6.82431e-07	-0.0718367
2	1	0	1	0	0	90.0818	0.312572	0.312321	0.00118179	3	-0.000142416	14	0.448423	117.476	3.69098e-07	-0.136102
2	0	0	1	0	0	91.3618	0.248572	0.248315	-0.00248385	3	-0.000142571	14	0.450531	117.476	-6.16777e-07	-0.202216
2	0	0	1	0	0	92.6718	0.183072	0.182836	-0.0123122	3	-0.000152491	13	0.457386	117.476	-2.25111e-06	-0.27455
2	0	0	0	0	0	93.9552	0.118902	0.118656	-0.0111608	3	-0.000168569	13	0.458848	117.476	-1.3243e-06	-0.340192
2	0	0	0	0	0	95.242	0.0545625	0.0543264	-0.00852653	3	-0.000181081	13	0.458329	117.476	-4.63216e-07	-0.404003
2	0	0	1	0	0	96.5255	-0.00961138	-0.00989389	-0.00721982	3	-0.000191169	13	0.458153	117.476	7.14321e-08	-0.468047
2	0	0	0	0	0	97.808	-0.0737375	-0.0740362	-0.00634508	3	-0.000199898	13	0.458109	117.476	4.69765e-07	-0.532145
2	0	0	1	0	0	99.0902	-0.137847	-0.138153	-0.00568596	3	-0.000207649	13	0.458121	117.476	7.8553e-07	-0.596274
2	0	0	1	0	0	100.372	-0.201928	-0.202212	-0.00518798	3	-0.00021466	13	0.45817	117.476	1.04908e-06	-0.660382
2	0	0	1	0	0	101.653	-0.265988	-0.266279	-0.00482197	3	-0.000221119	13	0.45825	117.476	1.28399e-06	-0.72453
2	0	0	1	0	0	102.934	-0.330048	-0.330303	-0.00456021	3	-0.000227179	13	0.458379	117.476	1.50625e-06	-0.788682
2	0	0	1	0	0	104.245	-0.395588	-0.395871	-0.00443805	3	-0.000233096	14	0.458573	117.476	1.75689e-06	-0.854443
2	0	0	1	0	0	105.504	-0.341488	-0.341765	-0.00377925	3	-0.000238138	14	0.458422	117.476	1.29161e-06	-0.800187
2	0	0	1	0	0	106.784	-0.277488	-0.277751	-0.00350789	3	-0.000242801	14	0.458439	117.476	9.74322e-07	-0.73619
2	0	0	1	0	0	108.064	-0.213488	-0.213743	-0.00328926	3	-0.000247156	14	0.458479	117.476	7.03057e-07	-0.672222
2	0	0	1	0	0	109.344	-0.149488	-0.149745	-0.00308979	3	-0.000251245	14	0.458536	117.476	4.6268e-07	-0.608281
2	0	0	1	0	0	110.624	-0.0854877	-0.0857943	-0.00288078	3	-0.000255076	14	0.45856	117.476	2.47154e-07	-0.544354
2	0	0	1	0	0	111.904	-0.0214877	-0.0217482	-0.00264607	3	-0.000258624	14	0.458531	117.476	5.75472e-08	-0.480279
2	0	0	1	0	0	113.184	0.0425123	0.0422927	-0.0023413	3	-0.000261838	14	0.458449	117.476	-9.90197e-08	-0.416157
2	0	0	1	0	0	114.464	0.106512	0.106281	-0.00148459	3	-0.00026443	14	0.458045	117.476	-1.57784e-07	-0.351763
2	1	0	1	0	0	115.744	0.170512	0.170267	0.00326512	3	-0.000264059	14	0.455213	117.476	5.55943e-07	-0.284946
2	1	0	1	0	0	117.055	0.236092	0.235897	0.0116445	3	-0.000253534	13	0.448891	117.476	2.74689e-06	-0.212994
2	1	0	1	0	0	118.388	0.302738	0.302512	0.00975778	3	-0.00023853	13	0.448012	117.476	2.95185e-06	-0.1455
2	1	0	1	0	0	119.743	0.37049	0.370225	0.00685045	3	-0.000227419	13	0.448824	117.476	2.53621e-06	-0.0785994
2	1	0	1	0	0	121.128	0.439737	0.439508	0.00525818	3	-0.000219084	13	0.44929	117.476	2.31101e-06	-0.00978288
2	1	0	1	0	0	122.536	0.510108	0.509918	0.00433101	3	-0.00021236	14	0.449504	117.476	2.20846e-06	0.0604139
2	1	0	1	0	0	123.856	0.576117	0.575908	0.00374747	3	-0.000207064	14	0.449578	117.476	2.1582e-06	0.12633
2	1	0	0	0	1	125.106	0.561382	0.561113	0.00296339	3	-0.000202877	14	0.449829	117.476	1.66279e-06	0.111283
2	1	0	0	0	1	126.386	0.497382	0.497127	0.0025482	3	-0.000199355	14	0.449912	117.476	1.26678e-06	0.0472146
2	1	0	1	0	1	127.288	0.452232	0.451841	0.00226521	3	-0.000197159	14	0.449897	117.476	1.02351e-06	0.00194362